File: tensile/test_1.is_qtest_Exports/test_1_5.csv
Time,Displacement,Force
(s),(mm),(kgf)
"0.0000","0.0000","0.0004"
"0.4000","0.3014","0.0069"
"0.8000","0.6351","0.0157"
"1.2000","0.9680","0.0210"
"1.6000","1.3012","0.0264"
"2.0000","1.6337","0.0320"
"2.4000","1.9664","0.0373"
"2.8000","2.3019","0.0425"
"3.2000","2.6338","0.0468"
"3.6000","2.9673","0.0519"
"4.0000","3.3015","0.0562"
"4.4000","3.6328","0.0606"
"4.8000","3.9673","0.0655"
"5.2000","4.3009","0.0692"
"5.6000","4.6337","0.0739"
"6.0000","4.9684","0.0779"
"6.4000","5.3007","0.0815"
"6.8000","5.6348","0.0860"
"7.2000","5.9680","0.0898"
"7.6000","6.3011","0.0940"
"8.0000","6.6337","0.0978"
"8.4000","6.9661","0.1016"
"8.8000","7.3019","0.1056"
"9.2000","7.6339","0.1088"
"9.6000","7.9672","0.1129"
"10.0000","8.3015","0.1164"
"10.4000","8.6329","0.1200"
"10.8000","8.9679","0.1240"
"11.2000","9.3010","0.1272"
"11.6000","9.6337","0.1313"
"12.0000","9.9686","0.1348"
"12.4000","10.3011","0.1382"
"12.8000","10.6351","0.1423"
"13.2000","10.9681","0.1456"
"13.6000","11.3015","0.1492"
"14.0000","11.6335","0.1529"
"14.4000","11.9664","0.1567"
"14.8000","12.3018","0.1606"
"15.2000","12.6339","0.1638"
"15.6000","12.9672","0.1680"
"16.0000","13.3016","0.1716"
"16.4000","13.6332","0.1754"
"16.8000","13.9677","0.1798"
"17.2000","14.3013","0.1832"
"17.6000","14.6340","0.1875"
"18.0000","14.9687","0.1915"
"18.4000","15.3005","0.1953"
"18.8000","15.6347","0.1999"
"19.2000","15.9682","0.2037"
"19.6000","16.3012","0.2081"
"20.0000","16.6338","0.2125"
"20.4000","16.9663","0.2170"
"20.8000","17.3019","0.2217"
"21.2000","17.6339","0.2259"
"21.6000","17.9675","0.2312"
"22.0000","18.3017","0.2360"
"22.4000","18.6330","0.2410"
"22.8000","18.9678","0.2467"
"23.2000","19.3012","0.2518"
"23.6000","19.6339","0.2577"
"24.0000","19.9687","0.2634"
"24.4000","20.3010","0.2691"
"24.8000","20.6349","0.2758"
"25.2000","20.9681","0.2817"
"25.6000","21.3013","0.2882"
"26.0000","21.6338","0.2949"
"26.4000","21.9662","0.3016"
"26.8000","22.3018","0.3084"
"27.2000","22.6339","0.3143"
"27.6000","22.9672","0.3210"
"28.0000","23.3017","0.3266"
"28.4000","23.6329","0.3321"
"28.8000","23.9678","0.3378"
"29.2000","24.3012","0.3421"
"29.6000","24.6341","0.3470"
"30.0000","24.9686","0.3515"
"30.4000","25.3011","0.3557"
"30.8000","25.6349","0.3605"
"31.2000","25.9683","0.3644"
"31.6000","26.3014","0.3686"
"32.0000","26.6338","0.3727"
"32.4000","26.9662","0.3769"
"32.8000","27.3018","0.3812"
"33.2000","27.6337","0.3847"
"33.6000","27.9674","0.3891"
"34.0000","28.3016","0.3929"
"34.4000","28.6329","0.3969"
"34.8000","28.9678","0.4012"
"35.2000","29.3011","0.4047"
"35.6000","29.6339","0.4090"
"36.0000","29.9684","0.4127"
"36.4000","30.3007","0.4162"
"36.8000","30.6347","0.4206"
"37.2000","30.9683","0.4240"
"37.6000","31.3012","0.4279"
"38.0000","31.6338","0.4317"
"38.4000","31.9664","0.4356"
"38.8000","32.3017","0.4396"
"39.2000","32.6338","0.4428"
"39.6000","32.9674","0.4469"
"40.0000","33.3020","0.4504"
"40.4000","33.6328","0.4541"
"40.8000","33.9680","0.4582"
"41.2000","34.3010","0.4615"
"41.6000","34.6341","0.4655"
"42.0000","34.9678","0.4690"
"42.4000","35.3009","0.4725"
"42.8000","35.6349","0.4768"
"43.2000","35.9682","0.4800"
"43.6000","36.3013","0.4837"
"44.0000","36.6339","0.4874"
"44.4000","36.9666","0.4911"
"44.8000","37.3019","0.4949"
"45.2000","37.6337","0.4980"
"45.6000","37.9673","0.5020"
"46.0000","38.3016","0.5055"
"46.4000","38.6327","0.5090"
"46.8000","38.9677","0.5131"
"47.2000","39.3011","0.5162"
"47.6000","39.6338","0.5201"
"48.0000","39.9687","0.5237"
"48.4000","40.3011","0.5271"
"48.8000","40.6350","0.5311"
"49.2000","40.9683","0.5343"
"49.6000","41.3011","0.5378"
"50.0000","41.6336","0.5414"
"50.4000","41.9663","0.5451"
"50.8000","42.3016","0.5489"
"51.2000","42.6340","0.5520"
"51.6000","42.9670","0.5559"
"52.0000","43.3015","0.5593"
"52.4000","43.6328","0.5628"
"52.8000","43.9676","0.5668"
"53.2000","44.3011","0.5698"
"53.6000","44.6337","0.5737"
"54.0000","44.9687","0.5771"
"54.4000","45.3008","0.5806"
"54.8000","45.6351","0.5847"
"55.2000","45.9683","0.5878"
"55.6000","46.3009","0.5912"
"56.0000","46.6337","0.5948"
"56.4000","46.9665","0.5983"
"56.8000","47.3019","0.6021"
"57.2000","47.6339","0.6051"
"57.6000","47.9674","0.6091"
"58.0000","48.3015","0.6124"
"58.4000","48.6330","0.6158"
"58.8000","48.9677","0.6198"
"59.2000","49.3014","0.6228"
"59.6000","49.6337","0.6267"
"60.0000","49.9687","0.6301"
"60.4000","50.3009","0.6334"
"60.8000","50.6351","0.6374"
"61.2000","50.9684","0.6404"
"61.6000","51.3012","0.6439"
"62.0000","51.6336","0.6474"
"62.4000","51.9664","0.6509"
"62.8000","52.3018","0.6546"
"63.2000","52.6340","0.6576"
"63.6000","52.9672","0.6615"
"64.0000","53.3014","0.6648"
"64.4000","53.6327","0.6683"
"64.8000","53.9679","0.6721"
"65.2000","54.3012","0.6751"
"65.6000","54.6337","0.6789"
"66.0000","54.9687","0.6824"
"66.4000","55.3011","0.6856"
"66.8000","55.6349","0.6895"
"67.2000","55.9682","0.6927"
"67.6000","56.3011","0.6961"
"68.0000","56.6338","0.6996"
"68.4000","56.9664","0.7031"
"68.8000","57.3018","0.7067"
"69.2000","57.6339","0.7098"
"69.6000","57.9674","0.7137"
"70.0000","58.3015","0.7169"
"70.4000","58.6328","0.7203"
"70.8000","58.9676","0.7242"
"71.2000","59.3010","0.7271"
"71.6000","59.6340","0.7309"
"72.0000","59.9684","0.7343"
"72.4000","60.3007","0.7375"
"72.8000","60.6349","0.7414"
"73.2000","60.9682","0.7445"
"73.6000","61.3013","0.7479"
"74.0000","61.6338","0.7513"
"74.4000","61.9665","0.7549"
"74.8000","62.3017","0.7584"
"75.2000","62.6338","0.7614"
"75.6000","62.9673","0.7652"
"76.0000","63.3017","0.7685"
"76.4000","63.6328","0.7717"
"76.8000","63.9677","0.7756"
"77.2000","64.3010","0.7784"
"77.6000","64.6339","0.7821"
"78.0000","64.9688","0.7854"
"78.4000","65.3009","0.7884"
"78.8000","65.6348","0.7922"
"79.2000","65.9685","0.7951"
"79.6000","66.3012","0.7984"
"80.0000","66.6337","0.8017"
"80.4000","66.9662","0.8051"
"80.8000","67.3019","0.8086"
"81.2000","67.6341","0.8114"
"81.6000","67.9672","0.8151"
"82.0000","68.3016","0.8184"
"82.4000","68.6325","0.8215"
"82.8000","68.9678","0.8253"
"83.2000","69.3012","0.8282"
"83.6000","69.6338","0.8317"
"84.0000","69.9686","0.8350"
"84.4000","70.3008","0.8380"
"84.8000","70.6344","0.8416"
"85.2000","70.9682","0.8443"
"85.6000","71.3012","0.8476"
"86.0000","71.6340","0.8508"
"86.4000","71.9666","0.8541"
"86.8000","72.3019","0.8575"
"87.2000","72.6338","0.8603"
"87.6000","72.9674","0.8639"
"88.0000","73.3016","0.8670"
"88.4000","73.6328","0.8702"
"88.8000","73.9679","0.8738"
"89.2000","74.3011","0.8765"
"89.6000","74.6340","0.8800"
"90.0000","74.9686","0.8830"
"90.4000","75.3010","0.8858"
"90.8000","75.6350","0.8891"
"91.2000","75.9680","0.8917"
"91.6000","76.3012","0.8946"
"92.0000","76.6339","0.8974"
"92.4000","76.9666","0.9001"
"92.8000","77.3016","0.9031"
"93.2000","77.6338","0.9054"
"93.6000","77.9672","0.9085"
"94.0000","78.3017","0.9112"
"94.4000","78.6330","0.9140"
"94.8000","78.9678","0.9172"
"95.2000","79.3010","0.9197"
"95.6000","79.6338","0.9229"
"96.0000","79.9686","0.9256"
"96.4000","80.3010","0.9281"
"96.8000","80.6349","0.9314"
"97.2000","80.9682","0.9340"
"97.6000","81.3013","0.9371"
"98.0000","81.6338","0.9400"
"98.4000","81.9665","0.9430"
"98.8000","82.3016","0.9460"
"99.2000","82.6335","0.9485"
"99.6000","82.9676","0.9519"
"100.0000","83.3017","0.9546"
"100.4000","83.6329","0.9574"
"100.8000","83.9679","0.9607"
"101.2000","84.3010","0.9633"
"101.6000","84.6338","0.9665"
"102.0000","84.9686","0.9689"
"102.4000","85.3011","0.9714"
"102.8000","85.6351","0.9744"
"103.2000","85.9682","0.9767"
"103.6000","86.3012","0.9795"
"104.0000","86.6336","0.9820"
"104.4000","86.9665","0.9846"
"104.8000","87.3017","0.9875"
"105.2000","87.6337","0.9899"
"105.6000","87.9674","0.9930"
"106.0000","88.3016","0.9957"
"106.4000","88.6329","0.9985"
"106.8000","88.9679","1.0019"
"107.2000","89.3010","1.0045"
"107.6000","89.6339","1.0079"
"108.0000","89.9685","1.0106"
"108.4000","90.3008","1.0133"
"108.8000","90.6352","1.0166"
"109.2000","90.9681","1.0192"
"109.6000","91.3011","1.0223"
"110.0000","91.6335","1.0255"
"110.4000","91.9665","1.0286"
"110.8000","92.3020","1.0320"
"111.2000","92.6339","1.0349"
"111.6000","92.9675","1.0386"
"112.0000","93.3014","1.0416"
"112.4000","93.6328","1.0447"
"112.8000","93.9678","1.0483"
"113.2000","94.3012","1.0510"
"113.6000","94.6340","1.0546"
"114.0000","94.9685","1.0576"
"114.4000","95.3007","1.0606"
"114.8000","95.6352","1.0642"
"115.2000","95.9684","1.0668"
"115.6000","96.3012","1.0695"
"115.6540","96.3443","0.6174"