File: tensile/test_1.is_qtest_Exports/test_1_1.csv
Time,Displacement,Force
(s),(mm),(kgf)
"0.0000","0.0000","0.0007"
"0.4000","0.3014","0.0098"
"0.8000","0.6364","0.0179"
"1.2000","0.9674","0.0252"
"1.6000","1.3021","0.0330"
"2.0000","1.6344","0.0402"
"2.4000","1.9665","0.0485"
"2.8000","2.3026","0.0566"
"3.2000","2.6347","0.0641"
"3.6000","2.9684","0.0726"
"4.0000","3.3018","0.0801"
"4.4000","3.6343","0.0883"
"4.8000","3.9678","0.0965"
"5.2000","4.3009","0.1045"
"5.6000","4.6360","0.1129"
"6.0000","4.9677","0.1210"
"6.4000","5.3010","0.1296"
"6.8000","5.6361","0.1376"
"7.2000","5.9674","0.1458"
"7.6000","6.3019","0.1545"
"8.0000","6.6344","0.1625"
"8.4000","6.9666","0.1716"
"8.8000","7.3024","0.1805"
"9.2000","7.6349","0.1890"
"9.6000","7.9682","0.1986"
"10.0000","8.3014","0.2074"
"10.4000","8.6342","0.2168"
"10.8000","8.9680","0.2264"
"11.2000","9.3010","0.2359"
"11.6000","9.6359","0.2459"
"12.0000","9.9676","0.2556"
"12.4000","10.3011","0.2659"
"12.8000","10.6360","0.2760"
"13.2000","10.9674","0.2862"
"13.6000","11.3018","0.2971"
"14.0000","11.6343","0.3075"
"14.4000","11.9667","0.3187"
"14.8000","12.3025","0.3299"
"15.2000","12.6348","0.3407"
"15.6000","12.9683","0.3526"
"16.0000","13.3014","0.3638"
"16.4000","13.6345","0.3756"
"16.8000","13.9681","0.3874"
"17.2000","14.3011","0.3990"
"17.6000","14.6357","0.4108"
"18.0000","14.9676","0.4217"
"18.4000","15.3012","0.4333"
"18.8000","15.6363","0.4441"
"19.2000","15.9678","0.4544"
"19.6000","16.3018","0.4650"
"20.0000","16.6341","0.4745"
"20.4000","16.9667","0.4847"
"20.8000","17.3024","0.4944"
"21.2000","17.6350","0.5035"
"21.6000","17.9681","0.5133"
"22.0000","18.3014","0.5223"
"22.4000","18.6344","0.5315"
"22.8000","18.9681","0.5407"
"23.2000","19.3013","0.5494"
"23.6000","19.6357","0.5584"
"24.0000","19.9675","0.5668"
"24.4000","20.3013","0.5757"
"24.8000","20.6363","0.5844"
"25.2000","20.9680","0.5927"
"25.6000","21.3019","0.6014"
"26.0000","21.6342","0.6092"
"26.4000","21.9665","0.6177"
"26.8000","22.3026","0.6260"
"27.2000","22.6346","0.6336"
"27.6000","22.9681","0.6422"
"28.0000","23.3018","0.6498"
"28.4000","23.6344","0.6578"
"28.8000","23.9682","0.6656"
"29.2000","24.3011","0.6732"
"29.6000","24.6359","0.6811"
"30.0000","24.9677","0.6884"
"30.4000","25.3012","0.6962"
"30.8000","25.6362","0.7037"
"31.2000","25.9674","0.7109"
"31.6000","26.3017","0.7186"
"32.0000","26.6342","0.7254"
"32.4000","26.9668","0.7330"
"32.8000","27.3026","0.7402"
"33.2000","27.6346","0.7469"
"33.6000","27.9680","0.7545"
"34.0000","28.3017","0.7612"
"34.4000","28.6347","0.7683"
"34.8000","28.9681","0.7754"
"35.2000","29.3010","0.7821"
"35.6000","29.6359","0.7892"
"36.0000","29.9679","0.7958"
"36.4000","30.3011","0.8029"
"36.8000","30.6362","0.8095"
"37.2000","30.9676","0.8160"
"37.6000","31.3020","0.8230"
"38.0000","31.6342","0.8291"
"38.4000","31.9670","0.8360"
"38.8000","32.3022","0.8426"
"39.2000","32.6348","0.8486"
"39.6000","32.9684","0.8556"
"40.0000","33.3014","0.8616"
"40.4000","33.6343","0.8681"
"40.8000","33.9680","0.8746"
"41.2000","34.3013","0.8807"
"41.6000","34.6347","0.8871"
"42.0000","34.9678","0.8931"
"42.4000","35.3012","0.8995"
"42.8000","35.6361","0.9057"
"43.2000","35.9676","0.9116"
"43.6000","36.3019","0.9181"
"44.0000","36.6341","0.9237"
"44.4000","36.9667","0.9300"
"44.8000","37.3025","0.9361"
"45.2000","37.6348","0.9417"
"45.6000","37.9684","0.9482"
"46.0000","38.3016","0.9538"
"46.4000","38.6343","0.9597"
"46.8000","38.9681","0.9658"
"47.2000","39.3008","0.9715"
"47.6000","39.6360","0.9776"
"48.0000","39.9674","0.9830"
"48.4000","40.3012","0.9891"
"48.8000","40.6360","0.9948"
"49.2000","40.9675","1.0004"
"49.6000","41.3019","1.0065"
"50.0000","41.6343","1.0118"
"50.4000","41.9668","1.0177"
"50.8000","42.3022","1.0234"
"51.2000","42.6347","1.0287"
"51.6000","42.9683","1.0347"
"52.0000","43.3015","1.0400"
"52.4000","43.6345","1.0457"
"52.8000","43.9678","1.0513"
"53.2000","44.3011","1.0567"
"53.6000","44.6358","1.0624"
"54.0000","44.9677","1.0676"
"54.4000","45.3010","1.0733"
"54.8000","45.6362","1.0787"
"55.2000","45.9676","1.0839"
"55.6000","46.3022","1.0897"
"56.0000","46.6347","1.0946"
"56.4000","46.9669","1.1003"
"56.8000","47.3023","1.1056"
"57.2000","47.6349","1.1106"
"57.6000","47.9684","1.1164"
"58.0000","48.3015","1.1213"
"58.4000","48.6343","1.1267"
"58.8000","48.9681","1.1321"
"59.2000","49.3012","1.1372"
"59.6000","49.6359","1.1426"
"60.0000","49.9677","1.1475"
"60.4000","50.3014","1.1530"
"60.8000","50.6363","1.1581"
"61.2000","50.9677","1.1630"
"61.6000","51.3019","1.1685"
"62.0000","51.6344","1.1732"
"62.4000","51.9666","1.1784"
"62.8000","52.3024","1.1835"
"63.2000","52.6347","1.1882"
"63.6000","52.9683","1.1938"
"64.0000","53.3015","1.1984"
"64.4000","53.6346","1.2034"
"64.8000","53.9679","1.2085"
"65.2000","54.3011","1.2133"
"65.6000","54.6360","1.2185"
"66.0000","54.9676","1.2230"
"66.4000","55.3013","1.2282"
"66.8000","55.6363","1.2331"
"67.2000","55.9675","1.2376"
"67.6000","56.3018","1.2429"
"68.0000","56.6343","1.2473"
"68.4000","56.9668","1.2524"
"68.8000","57.3026","1.2572"
"69.2000","57.6347","1.2616"
"69.6000","57.9683","1.2668"
"70.0000","58.3017","1.2712"
"70.4000","58.6343","1.2761"
"70.8000","58.9680","1.2809"
"71.2000","59.3012","1.2855"
"71.6000","59.6358","1.2905"
"72.0000","59.9678","1.2949"
"72.4000","60.3013","1.2999"
"72.8000","60.6365","1.3047"
"73.2000","60.9676","1.3091"
"73.6000","61.3018","1.3141"
"74.0000","61.6343","1.3183"
"74.4000","61.9668","1.3232"
"74.8000","62.3026","1.3279"
"75.2000","62.6347","1.3321"
"75.6000","62.9681","1.3372"
"76.0000","63.3015","1.3414"
"76.4000","63.6345","1.3461"
"76.8000","63.9679","1.3507"
"77.2000","64.3009","1.3551"
"77.6000","64.6359","1.3598"
"78.0000","64.9676","1.3639"
"78.4000","65.3012","1.3685"
"78.8000","65.6362","1.3728"
"79.2000","65.9675","1.3769"
"79.6000","66.3019","1.3816"
"80.0000","66.6343","1.3855"
"80.4000","66.9666","1.3901"
"80.8000","67.3026","1.3944"
"81.2000","67.6349","1.3982"
"81.6000","67.9682","1.4028"
"82.0000","68.3015","1.4063"
"82.4000","68.6344","1.4103"
"82.8000","68.9679","1.4142"
"83.2000","69.3006","1.4173"
"83.6000","69.6360","1.4205"
"84.0000","69.9676","1.4224"
"84.4000","70.3013","1.4232"
"84.8000","70.6362","1.4211"
"85.2000","70.9677","1.2246"
"85.6000","71.3017","1.2304"
"86.0000","71.6344","1.2434"
"86.4000","71.9667","1.2586"
"86.8000","72.3023","1.2740"
"87.2000","72.6350","1.2894"
"87.6000","72.9682","1.3056"
"88.0000","73.3016","1.3211"
"88.4000","73.6345","1.3366"
"88.8000","73.9678","1.3519"
"89.2000","74.3011","1.3662"
"89.6000","74.6358","1.3801"
"90.0000","74.9677","1.3920"
"90.4000","75.3012","1.4034"
"90.8000","75.6362","1.4131"
"91.2000","75.9676","1.4212"
"91.6000","76.3016","1.4291"
"92.0000","76.6345","1.4353"
"92.4000","76.9666","1.4416"
"92.8000","77.3025","1.4474"
"93.2000","77.6347","1.4522"
"93.6000","77.9681","1.4577"
"94.0000","78.3016","1.4623"
"94.4000","78.6343","1.4671"
"94.8000","78.9681","1.4719"
"95.2000","79.3010","1.4762"
"95.6000","79.6359","1.4809"
"96.0000","79.9675","1.4851"
"96.4000","80.3012","1.4899"
"96.8000","80.6362","1.4941"
"97.2000","80.9675","1.4982"
"97.6000","81.3018","1.5028"
"98.0000","81.6344","1.5067"
"98.4000","81.9668","1.5111"
"98.8000","82.3025","1.5154"
"99.2000","82.6349","1.5193"
"99.6000","82.9681","1.5240"
"100.0000","83.3018","1.5280"
"100.4000","83.6342","1.5324"
"100.8000","83.9682","1.5369"
"101.2000","84.3014","1.5412"
"101.6000","84.6357","1.5457"
"102.0000","84.9679","1.5496"
"102.4000","85.3012","1.5542"
"102.8000","85.6366","1.5585"
"103.2000","85.9676","1.5624"
"103.6000","86.3018","1.5669"
"104.0000","86.6344","1.5706"
"104.4000","86.9667","1.5751"
"104.8000","87.3027","1.5792"
"105.2000","87.6348","1.5829"
"105.6000","87.9681","1.5876"
"106.0000","88.3017","1.5912"
"106.4000","88.6345","1.5954"
"106.8000","88.9682","1.5997"
"107.2000","89.3011","1.6037"
"107.6000","89.6357","1.6079"
"108.0000","89.9678","1.6116"
"108.4000","90.3013","1.6162"
"108.8000","90.6361","1.6203"
"109.2000","90.9674","1.6241"
"109.6000","91.3018","1.6285"
"110.0000","91.6346","1.6321"
"110.4000","91.9667","1.6365"
"110.8000","92.3025","1.6407"
"111.2000","92.6347","1.6446"
"111.6000","92.9682","1.6491"
"112.0000","93.3018","1.6530"
"112.4000","93.6344","1.6571"
"112.8000","93.9680","1.6614"
"113.2000","94.3014","1.6654"
"113.6000","94.6358","1.6697"
"114.0000","94.9677","1.6734"
"114.4000","95.3013","1.6766"
"114.4260","95.3253","0.9864"