File: tensile/test_1.is_qtest_Exports/test_1_6.csv
Time,Displacement,Force
(s),(mm),(kgf)
"0.0000","0.0000","0.0015"
"0.5000","0.3880","0.0267"
"1.0000","0.8039","0.0553"
"1.5000","1.2205","0.0831"
"2.0000","1.6372","0.1087"
"2.5000","2.0529","0.1326"
"3.0000","2.4701","0.1560"
"3.5000","2.8876","0.1789"
"4.0000","3.3037","0.2011"
"4.5000","3.7205","0.2229"
"5.0000","4.1372","0.2446"
"5.5000","4.5527","0.2659"
"6.0000","4.9701","0.2869"
"6.5000","5.3875","0.3077"
"7.0000","5.8040","0.3282"
"7.5000","6.2205","0.3485"
"8.0000","6.6374","0.3685"
"8.5000","7.0529","0.3885"
"9.0000","7.4704","0.4083"
"9.5000","7.8879","0.4280"
"10.0000","8.3037","0.4476"
"10.5000","8.7204","0.4671"
"11.0000","9.1374","0.4867"
"11.5000","9.5527","0.5062"
"12.0000","9.9700","0.5258"
"12.5000","10.3880","0.5454"
"13.0000","10.8038","0.5652"
"13.5000","11.2205","0.5852"
"14.0000","11.6373","0.6054"
"14.5000","12.0529","0.6259"
"15.0000","12.4699","0.6465"
"15.5000","12.8874","0.6675"
"16.0000","13.3036","0.6886"
"16.5000","13.7206","0.7101"
"17.0000","14.1372","0.7316"
"17.5000","14.5528","0.7534"
"18.0000","14.9701","0.7748"
"18.5000","15.3880","0.7959"
"19.0000","15.8040","0.8164"
"19.5000","16.2206","0.8368"
"20.0000","16.6374","0.8567"
"20.5000","17.0531","0.8764"
"21.0000","17.4702","0.8958"
"21.5000","17.8876","0.9149"
"22.0000","18.3040","0.9335"
"22.5000","18.7205","0.9517"
"23.0000","19.1374","0.9695"
"23.5000","19.5528","0.9871"
"24.0000","19.9701","1.0042"
"24.5000","20.3879","1.0206"
"25.0000","20.8039","1.0369"
"25.5000","21.2206","1.0527"
"26.0000","21.6371","1.0682"
"26.5000","22.0530","1.0834"
"27.0000","22.4700","1.0983"
"27.5000","22.8878","1.1130"
"28.0000","23.3038","1.1273"
"28.5000","23.7205","1.1413"
"29.0000","24.1366","1.1551"
"29.5000","24.5529","1.1687"
"30.0000","24.9697","1.1822"
"30.5000","25.3877","1.1955"
"31.0000","25.8039","1.2086"
"31.5000","26.2206","1.2215"
"32.0000","26.6373","1.2341"
"32.5000","27.0531","1.2467"
"33.0000","27.4701","1.2590"
"33.5000","27.8878","1.2713"
"34.0000","28.3040","1.2831"
"34.5000","28.7205","1.2949"
"35.0000","29.1371","1.3064"
"35.5000","29.5528","1.3179"
"36.0000","29.9702","1.3294"
"36.5000","30.3876","1.3409"
"37.0000","30.8039","1.3519"
"37.5000","31.2204","1.3627"
"38.0000","31.6372","1.3733"
"38.5000","32.0529","1.3838"
"39.0000","32.4700","1.3941"
"39.5000","32.8877","1.4043"
"40.0000","33.3039","1.4143"
"40.5000","33.7206","1.4243"
"41.0000","34.1371","1.4339"
"41.5000","34.5528","1.4435"
"42.0000","34.9700","1.4525"
"42.5000","35.3879","1.4613"
"43.0000","35.8038","1.4699"
"43.5000","36.2206","1.4786"
"44.0000","36.6374","1.4872"
"44.5000","37.0531","1.4958"
"45.0000","37.4702","1.5045"
"45.5000","37.8875","1.5130"
"46.0000","38.3039","1.5213"
"46.5000","38.7204","1.5298"
"47.0000","39.1373","1.5386"
"47.5000","39.5526","1.5476"
"48.0000","39.9701","1.5566"
"48.5000","40.3878","1.5654"
"49.0000","40.8039","1.5733"
"49.5000","41.2205","1.5810"
"50.0000","41.6373","1.5886"
"50.5000","42.0529","1.5963"
"51.0000","42.4701","1.6040"
"51.5000","42.8876","1.6113"
"52.0000","43.3038","1.6179"
"52.5000","43.7205","1.6249"
"53.0000","44.1373","1.6314"
"53.5000","44.5526","1.6373"
"54.0000","44.9701","1.6438"
"54.5000","45.3877","1.6519"
"55.0000","45.8039","1.6601"
"55.5000","46.2207","1.6689"
"56.0000","46.6373","1.6780"
"56.5000","47.0529","1.6872"
"57.0000","47.4702","1.6961"
"57.5000","47.8877","1.7053"
"58.0000","48.3039","1.7142"
"58.5000","48.7205","1.7232"
"59.0000","49.1371","1.7322"
"59.5000","49.5529","1.7416"
"60.0000","49.9700","1.7509"
"60.5000","50.3876","1.7602"
"61.0000","50.8037","1.7695"
"61.5000","51.2206","1.7786"
"62.0000","51.6373","1.7875"
"62.5000","52.0530","1.7968"
"63.0000","52.4700","1.8058"
"63.5000","52.8877","1.8148"
"64.0000","53.3039","1.8237"
"64.5000","53.7204","1.8329"
"65.0000","54.1373","1.8419"
"65.5000","54.5530","1.8508"
"66.0000","54.9700","1.8597"
"66.5000","55.3878","1.8687"
"67.0000","55.8038","1.8777"
"67.5000","56.2205","1.8866"
"68.0000","56.6373","1.8960"
"68.5000","57.0530","1.9051"
"69.0000","57.4700","1.9142"
"69.5000","57.8877","1.9234"
"70.0000","58.3038","1.9324"
"70.5000","58.7206","1.9415"
"71.0000","59.1372","1.9505"
"71.5000","59.5530","1.9588"
"72.0000","59.9700","1.9678"
"72.5000","60.3877","1.9769"
"73.0000","60.8040","1.9860"
"73.5000","61.2206","1.9950"
"74.0000","61.6372","2.0041"
"74.5000","62.0531","2.0132"
"75.0000","62.4702","2.0224"
"75.5000","62.8875","2.0316"
"76.0000","63.3042","2.0408"
"76.5000","63.7205","2.0498"
"77.0000","64.1373","2.0589"
"77.5000","64.5531","2.0680"
"78.0000","64.9704","2.0771"
"78.5000","65.3879","2.0860"
"79.0000","65.8042","2.0952"
"79.5000","66.2206","2.1042"
"80.0000","66.6373","2.1132"
"80.5000","67.0530","2.1225"
"81.0000","67.4703","2.1318"
"81.5000","67.8876","2.1410"
"82.0000","68.3038","2.1503"
"82.5000","68.7206","2.1595"
"83.0000","69.1371","2.1689"
"83.5000","69.5528","2.1781"
"84.0000","69.9701","2.1873"
"84.5000","70.3877","2.1966"
"85.0000","70.8039","2.2058"
"85.5000","71.2206","2.2151"
"86.0000","71.6373","2.2243"
"86.5000","72.0531","2.2336"
"87.0000","72.4701","2.2428"
"87.5000","72.8876","2.2521"
"88.0000","73.3039","2.2614"
"88.5000","73.7205","2.2704"
"89.0000","74.1372","2.2797"
"89.5000","74.5528","2.2888"
"90.0000","74.9702","2.2980"
"90.5000","75.3878","2.3071"
"91.0000","75.8040","2.3163"
"91.5000","76.2204","2.3253"
"92.0000","76.6373","2.3345"
"92.5000","77.0528","2.3438"
"93.0000","77.4702","2.3531"
"93.5000","77.8875","2.3623"
"94.0000","78.3037","2.3714"
"94.5000","78.7208","2.3805"
"95.0000","79.1371","2.3898"
"95.5000","79.5528","2.3990"
"96.0000","79.9699","2.4081"
"96.5000","80.3879","2.4172"
"97.0000","80.8039","2.4262"
"97.5000","81.2205","2.4351"
"98.0000","81.6375","2.4441"
"98.5000","82.0531","2.4531"
"99.0000","82.4701","2.4620"
"99.5000","82.8877","2.4709"
"100.0000","83.3039","2.4799"
"100.5000","83.7204","2.4888"
"101.0000","84.1371","2.4977"
"101.5000","84.5528","2.5066"
"102.0000","84.9702","2.5154"
"102.5000","85.3877","2.5241"
"103.0000","85.8038","2.5328"
"103.5000","86.2207","2.5414"
"104.0000","86.6374","2.5498"
"104.5000","87.0530","2.5584"
"105.0000","87.4699","2.5669"
"105.5000","87.8877","2.5754"
"106.0000","88.3039","2.5839"
"106.5000","88.7204","2.5923"
"107.0000","89.1374","2.6006"
"107.5000","89.5529","2.6090"
"108.0000","89.9703","2.6172"
"108.5000","90.3878","2.6254"
"109.0000","90.8039","2.6333"
"109.5000","91.2207","2.6402"
"110.0000","91.6375","2.6458"
"110.5000","92.0527","2.6515"
"111.0000","92.4702","2.6579"
"111.5000","92.8877","2.6665"
"112.0000","93.3040","2.6762"
"112.5000","93.7207","2.6859"
"113.0000","94.1373","2.6960"
"113.5000","94.5529","2.7057"
"114.0000","94.9702","2.7157"
"114.5000","95.3878","2.7256"
"115.0000","95.8041","2.7355"
"115.5000","96.2207","2.7449"
"116.0000","96.6373","2.7543"
"116.5000","97.0527","2.7637"
"117.0000","97.4702","2.7732"
"117.5000","97.8877","2.7825"
"118.0000","98.3039","2.7919"
"118.5000","98.7206","2.8011"
"119.0000","99.1371","2.8101"
"119.5000","99.5528","2.8193"
"120.0000","99.9700","2.8282"
"120.5000","100.3879","2.8365"
"120.7450","100.5918","1.6329"