File: tensile/test_1.is_qtest_Exports/test_1_3.csv
Time,Displacement,Force
(s),(mm),(kgf)
"0.0000","0.0000","0.0024"
"0.7000","0.5625","0.0318"
"1.4000","1.1469","0.0589"
"2.1000","1.7306","0.0838"
"2.8000","2.3137","0.1081"
"3.5000","2.8951","0.1323"
"4.2000","3.4790","0.1560"
"4.9000","4.0634","0.1799"
"5.6000","4.6473","0.2031"
"6.3000","5.2300","0.2265"
"7.0000","5.8129","0.2499"
"7.7000","6.3956","0.2734"
"8.4000","6.9795","0.2969"
"9.1000","7.5628","0.3200"
"9.8000","8.1467","0.3431"
"10.5000","8.7294","0.3665"
"11.2000","9.3132","0.3903"
"11.9000","9.8963","0.4141"
"12.6000","10.4800","0.4379"
"13.3000","11.0626","0.4618"
"14.0000","11.6452","0.4863"
"14.7000","12.2298","0.5111"
"15.4000","12.8142","0.5369"
"16.1000","13.3973","0.5624"
"16.8000","13.9791","0.5885"
"17.5000","14.5615","0.6151"
"18.2000","15.1460","0.6422"
"18.9000","15.7304","0.6693"
"19.6000","16.3134","0.6950"
"20.3000","16.8972","0.7203"
"21.0000","17.4786","0.7451"
"21.7000","18.0625","0.7699"
"22.4000","18.6464","0.7942"
"23.1000","19.2305","0.8180"
"23.8000","19.8137","0.8413"
"24.5000","20.3952","0.8646"
"25.2000","20.9789","0.8870"
"25.9000","21.5635","0.9094"
"26.6000","22.1474","0.9307"
"27.3000","22.7299","0.9514"
"28.0000","23.3127","0.9719"
"28.7000","23.8962","0.9920"
"29.4000","24.4791","1.0116"
"30.1000","25.0627","1.0304"
"30.8000","25.6468","1.0490"
"31.5000","26.2297","1.0673"
"32.2000","26.8135","1.0855"
"32.9000","27.3963","1.1032"
"33.6000","27.9799","1.1204"
"34.3000","28.5630","1.1372"
"35.0000","29.1447","1.1542"
"35.7000","29.7299","1.1709"
"36.4000","30.3143","1.1878"
"37.1000","30.8974","1.2038"
"37.8000","31.4789","1.2197"
"38.5000","32.0617","1.2355"
"39.2000","32.6460","1.2513"
"39.9000","33.2307","1.2671"
"40.6000","33.8134","1.2824"
"41.3000","34.3969","1.2975"
"42.0000","34.9783","1.3125"
"42.7000","35.5623","1.3278"
"43.4000","36.1466","1.3427"
"44.1000","36.7309","1.3573"
"44.8000","37.3138","1.3718"
"45.5000","37.8951","1.3862"
"46.2000","38.4789","1.4007"
"46.9000","39.0635","1.4152"
"47.6000","39.6472","1.4289"
"48.3000","40.2297","1.4428"
"49.0000","40.8127","1.4567"
"49.7000","41.3962","1.4707"
"50.4000","41.9797","1.4846"
"51.1000","42.5626","1.4979"
"51.8000","43.1468","1.5114"
"52.5000","43.7296","1.5251"
"53.2000","44.3132","1.5389"
"53.9000","44.8965","1.5523"
"54.6000","45.4798","1.5656"
"55.3000","46.0626","1.5786"
"56.0000","46.6452","1.5920"
"56.7000","47.2297","1.6053"
"57.4000","47.8144","1.6189"
"58.1000","48.3972","1.6318"
"58.8000","48.9789","1.6448"
"59.5000","49.5615","1.6575"
"60.2000","50.1460","1.6703"
"60.9000","50.7307","1.6833"
"61.6000","51.3136","1.6957"
"62.3000","51.8970","1.7078"
"63.0000","52.4786","1.7193"
"63.7000","53.0627","1.7308"
"64.4000","53.6463","1.7425"
"65.1000","54.2305","1.7549"
"65.8000","54.8137","1.7673"
"66.5000","55.3949","1.7801"
"67.2000","55.9787","1.7930"
"67.9000","56.5635","1.8062"
"68.6000","57.1473","1.8189"
"69.3000","57.7294","1.8315"
"70.0000","58.3123","1.8441"
"70.7000","58.8959","1.8568"
"71.4000","59.4794","1.8692"
"72.1000","60.0625","1.8810"
"72.8000","60.6468","1.8920"
"73.5000","61.2297","1.9036"
"74.2000","61.8134","1.9168"
"74.9000","62.3962","1.9298"
"75.6000","62.9801","1.9422"
"76.3000","63.5627","1.9542"
"77.0000","64.1448","1.9666"
"77.7000","64.7298","1.9786"
"78.4000","65.3147","1.9904"
"79.1000","65.8974","1.9989"
"79.8000","66.4792","2.0112"
"80.5000","67.0618","2.0237"
"81.2000","67.6460","2.0370"
"81.9000","68.2305","2.0500"
"82.6000","68.8133","2.0627"
"83.3000","69.3970","2.0753"
"84.0000","69.9785","2.0880"
"84.7000","70.5625","2.1009"
"85.4000","71.1465","2.1135"
"86.1000","71.7308","2.1260"
"86.8000","72.3138","2.1382"
"87.5000","72.8950","2.1509"
"88.2000","73.4787","2.1635"
"88.9000","74.0632","2.1763"
"89.6000","74.6472","2.1883"
"90.3000","75.2298","2.2005"
"91.0000","75.8130","2.2128"
"91.7000","76.3960","2.2252"
"92.4000","76.9796","2.2377"
"93.1000","77.5626","2.2499"
"93.8000","78.1469","2.2620"
"94.5000","78.7296","2.2745"
"95.2000","79.3134","2.2871"
"95.9000","79.8961","2.2995"
"96.6000","80.4800","2.3119"
"97.3000","81.0626","2.3239"
"98.0000","81.6449","2.3364"
"98.7000","82.2297","2.3488"
"99.4000","82.8142","2.3615"
"100.1000","83.3972","2.3737"
"100.8000","83.9788","2.3857"
"101.5000","84.5615","2.3980"
"102.2000","85.1460","2.4106"
"102.9000","85.7309","2.4231"
"103.6000","86.3132","2.4351"
"104.3000","86.8965","2.4472"
"105.0000","87.4786","2.4592"
"105.7000","88.0626","2.4714"
"106.4000","88.6465","2.4838"
"107.1000","89.2308","2.4957"
"107.8000","89.8136","2.5073"
"108.5000","90.3952","2.5194"
"109.2000","90.9790","2.5314"
"109.9000","91.5636","2.5437"
"110.6000","92.1472","2.5552"
"111.3000","92.7299","2.5669"
"112.0000","93.3126","2.5785"
"112.7000","93.8959","2.5907"
"113.4000","94.4793","2.6023"
"114.1000","95.0625","2.6134"
"114.8000","95.6469","2.6240"
"115.5000","96.2296","2.6334"
"116.2000","96.8132","2.6279"
"116.9000","97.3964","2.3919"
"117.6000","97.9800","2.4258"
"118.3000","98.5629","2.4560"
"119.0000","99.1453","2.4636"
"119.7000","99.7301","2.4864"
"120.4000","100.3145","2.5196"
"121.1000","100.8973","2.5464"
"121.8000","101.4790","2.5598"
"122.5000","102.0619","2.5734"
"123.2000","102.6462","2.5960"
"123.9000","103.2305","2.6193"
"124.6000","103.8134","2.6397"
"125.3000","104.3969","2.6581"
"126.0000","104.9788","2.6747"
"126.7000","105.5625","2.6900"
"127.4000","106.1466","2.7045"
"128.1000","106.7301","2.7180"
"128.8000","107.3137","2.7311"
"129.5000","107.8949","2.7445"
"130.2000","108.4788","2.7570"
"130.9000","109.0632","2.7704"
"131.6000","109.6471","2.7826"
"132.3000","110.2300","2.7953"
"133.0000","110.8129","2.8077"
"133.7000","111.3961","2.8204"
"134.4000","111.9799","2.8330"
"135.1000","112.5627","2.8452"
"135.8000","113.1469","2.8575"
"136.5000","113.7296","2.8699"
"137.2000","114.3134","2.8828"
"137.9000","114.8962","2.8953"
"138.6000","115.4795","2.9077"
"139.3000","116.0629","2.9198"
"140.0000","116.6454","2.9323"
"140.7000","117.2300","2.9448"
"141.4000","117.8144","2.9575"
"142.1000","118.3972","2.9697"
"142.8000","118.9792","2.9819"
"143.5000","119.5616","2.9944"
"144.2000","120.1460","3.0070"
"144.9000","120.7305","3.0197"
"145.6000","121.3135","3.0319"
"146.3000","121.8969","3.0442"
"147.0000","122.4792","3.0565"
"147.7000","123.0625","3.0690"
"148.4000","123.6464","3.0815"
"149.1000","124.2308","3.0939"
"149.8000","124.8138","3.1062"
"150.5000","125.3951","3.1188"
"151.2000","125.9791","3.1314"
"151.9000","126.5635","3.1442"
"152.6000","127.1474","3.1565"
"153.3000","127.7300","3.1689"
"154.0000","128.3126","3.1814"
"154.7000","128.8960","3.1941"
"155.4000","129.4796","3.2069"
"156.1000","130.0625","3.2193"
"156.8000","130.6469","3.2319"
"157.5000","131.2296","3.2443"
"158.2000","131.8136","3.2571"
"158.9000","132.3965","3.2697"
"159.6000","132.9801","3.2824"
"160.3000","133.5628","3.2946"
"161.0000","134.1443","3.3073"
"161.7000","134.7300","3.3200"
"162.4000","135.3144","3.3332"
"163.1000","135.8974","3.3455"
"163.8000","136.4790","3.3580"
"164.5000","137.0618","3.3705"
"165.2000","137.6461","3.3833"
"165.9000","138.2301","3.3962"
"166.6000","138.8135","3.4088"
"167.3000","139.3971","3.4212"
"168.0000","139.9784","3.4336"
"168.7000","140.5623","3.4464"
"169.4000","141.1463","3.4591"
"170.1000","141.7305","3.4714"
"170.8000","142.3136","3.4835"
"171.5000","142.8948","3.4961"
"172.2000","143.4791","3.5087"
"172.9000","144.0635","3.5217"
"173.6000","144.6472","3.5338"
"174.3000","145.2300","3.5460"
"175.0000","145.8129","3.5581"
"175.7000","146.3956","3.5703"
"176.4000","146.9797","3.5821"
"177.1000","147.5626","3.5931"
"177.8000","148.1468","3.6040"
"178.5000","148.7295","3.6143"
"179.2000","149.3133","3.6239"
"179.9000","149.8961","3.6279"
"180.6000","150.4800","3.0795"
"181.3000","151.0626","3.0263"
"182.0000","151.6450","3.0592"
"182.7000","152.2296","3.0978"
"183.4000","152.8142","3.1381"
"184.1000","153.3973","3.1770"
"184.8000","153.9790","3.2097"
"185.5000","154.5617","3.0966"
"186.2000","155.1459","3.0961"
"186.9000","155.7307","3.1229"
"187.6000","156.3137","3.1318"
"188.3000","156.8970","3.1731"
"189.0000","157.4787","3.2091"
"189.7000","158.0625","3.2460"
"190.4000","158.6464","3.2740"
"191.1000","159.2307","3.2949"
"191.8000","159.8139","3.3303"
"192.5000","160.3951","3.3685"
"193.2000","160.9789","3.4011"
"193.9000","161.5632","3.4300"
"193.9570","161.6118","2.0245"