File: tensile/test_1.is_qtest_Exports/test_1_4.csv
Time,Displacement,Force
(s),(mm),(kgf)
"0.0000","0.0000","0.0003"
"0.4000","0.3144","0.0026"
"0.8000","0.6464","0.0068"
"1.2000","0.9787","0.0124"
"1.6000","1.3131","0.0171"
"2.0000","1.6450","0.0216"
"2.4000","1.9794","0.0274"
"2.8000","2.3135","0.0320"
"3.2000","2.6456","0.0369"
"3.6000","2.9798","0.0420"
"4.0000","3.3123","0.0461"
"4.4000","3.6460","0.0506"
"4.8000","3.9788","0.0546"
"5.2000","4.3130","0.0592"
"5.6000","4.6469","0.0636"
"6.0000","4.9782","0.0680"
"6.4000","5.3139","0.0732"
"6.8000","5.6466","0.0777"
"7.2000","5.9784","0.0832"
"7.6000","6.3133","0.0885"
"8.0000","6.6446","0.0935"
"8.4000","6.9793","0.0994"
"8.8000","7.3136","0.1045"
"9.2000","7.6455","0.1102"
"9.6000","7.9797","0.1161"
"10.0000","8.3121","0.1217"
"10.4000","8.6461","0.1280"
"10.8000","8.9784","0.1336"
"11.2000","9.3130","0.1401"
"11.6000","9.6468","0.1462"
"12.0000","9.9780","0.1526"
"12.4000","10.3139","0.1593"
"12.8000","10.6465","0.1651"
"13.2000","10.9785","0.1718"
"13.6000","11.3133","0.1785"
"14.0000","11.6448","0.1850"
"14.4000","11.9791","0.1923"
"14.8000","12.3136","0.1985"
"15.2000","12.6455","0.2055"
"15.6000","12.9795","0.2126"
"16.0000","13.3121","0.2194"
"16.4000","13.6459","0.2267"
"16.8000","13.9789","0.2336"
"17.2000","14.3129","0.2410"
"17.6000","14.6469","0.2482"
"18.0000","14.9781","0.2556"
"18.4000","15.3140","0.2634"
"18.8000","15.6466","0.2704"
"19.2000","15.9784","0.2781"
"19.6000","16.3131","0.2860"
"20.0000","16.6446","0.2935"
"20.4000","16.9792","0.3020"
"20.8000","17.3134","0.3095"
"21.2000","17.6455","0.3175"
"21.6000","17.9795","0.3259"
"22.0000","18.3123","0.3336"
"22.4000","18.6460","0.3420"
"22.8000","18.9786","0.3497"
"23.2000","19.3130","0.3579"
"23.6000","19.6469","0.3656"
"24.0000","19.9783","0.3732"
"24.4000","20.3140","0.3811"
"24.8000","20.6467","0.3879"
"25.2000","20.9786","0.3951"
"25.6000","21.3133","0.4019"
"26.0000","21.6448","0.4083"
"26.4000","21.9792","0.4152"
"26.8000","22.3135","0.4210"
"27.2000","22.6457","0.4274"
"27.6000","22.9795","0.4337"
"28.0000","23.3123","0.4394"
"28.4000","23.6460","0.4456"
"28.8000","23.9788","0.4513"
"29.2000","24.3127","0.4573"
"29.6000","24.6471","0.4628"
"30.0000","24.9784","0.4684"
"30.4000","25.3139","0.4746"
"30.8000","25.6462","0.4796"
"31.2000","25.9784","0.4854"
"31.6000","26.3133","0.4909"
"32.0000","26.6448","0.4960"
"32.4000","26.9790","0.5019"
"32.8000","27.3133","0.5068"
"33.2000","27.6457","0.5122"
"33.6000","27.9795","0.5176"
"34.0000","28.3124","0.5226"
"34.4000","28.6459","0.5280"
"34.8000","28.9786","0.5329"
"35.2000","29.3130","0.5382"
"35.6000","29.6470","0.5432"
"36.0000","29.9784","0.5481"
"36.4000","30.3137","0.5536"
"36.8000","30.6466","0.5581"
"37.2000","30.9785","0.5632"
"37.6000","31.3135","0.5683"
"38.0000","31.6447","0.5729"
"38.4000","31.9793","0.5783"
"38.8000","32.3133","0.5827"
"39.2000","32.6455","0.5875"
"39.6000","32.9795","0.5925"
"40.0000","33.3123","0.5971"
"40.4000","33.6458","0.6021"
"40.8000","33.9785","0.6066"
"41.2000","34.3127","0.6114"
"41.6000","34.6471","0.6160"
"42.0000","34.9782","0.6206"
"42.4000","35.3138","0.6257"
"42.8000","35.6465","0.6298"
"43.2000","35.9784","0.6346"
"43.6000","36.3135","0.6392"
"44.0000","36.6447","0.6436"
"44.4000","36.9791","0.6486"
"44.8000","37.3132","0.6526"
"45.2000","37.6454","0.6572"
"45.6000","37.9796","0.6618"
"46.0000","38.3125","0.6660"
"46.4000","38.6459","0.6707"
"46.8000","38.9785","0.6748"
"47.2000","39.3129","0.6795"
"47.6000","39.6472","0.6837"
"48.0000","39.9782","0.6880"
"48.4000","40.3139","0.6928"
"48.8000","40.6463","0.6964"
"49.2000","40.9785","0.7010"
"49.6000","41.3134","0.7053"
"50.0000","41.6449","0.7094"
"50.4000","41.9791","0.7140"
"50.8000","42.3133","0.7177"
"51.2000","42.6455","0.7219"
"51.6000","42.9795","0.7261"
"52.0000","43.3123","0.7300"
"52.4000","43.6461","0.7343"
"52.8000","43.9784","0.7380"
"53.2000","44.3129","0.7421"
"53.6000","44.6469","0.7457"
"54.0000","44.9781","0.7491"
"54.4000","45.3139","0.7533"
"54.8000","45.6465","0.7566"
"55.2000","45.9784","0.7607"
"55.6000","46.3132","0.7644"
"56.0000","46.6446","0.7675"
"56.4000","46.9792","0.7709"
"56.8000","47.3131","0.7711"
"57.2000","47.6458","0.7625"
"57.6000","47.9795","0.7497"
"58.0000","48.3123","0.7559"
"58.4000","48.6460","0.7639"
"58.8000","48.9789","0.7706"
"59.2000","49.3129","0.7768"
"59.6000","49.6466","0.7819"
"60.0000","49.9782","0.7866"
"60.4000","50.3140","0.7914"
"60.8000","50.6466","0.7951"
"61.2000","50.9786","0.7994"
"61.6000","51.3131","0.8034"
"62.0000","51.6445","0.8072"
"62.4000","51.9791","0.8115"
"62.8000","52.3133","0.8150"
"63.2000","52.6455","0.8189"
"63.6000","52.9795","0.8230"
"64.0000","53.3122","0.8266"
"64.4000","53.6463","0.8308"
"64.8000","53.9786","0.8343"
"65.2000","54.3130","0.8384"
"65.6000","54.6468","0.8420"
"66.0000","54.9782","0.8459"
"66.4000","55.3138","0.8501"
"66.8000","55.6464","0.8533"
"67.2000","55.9786","0.8573"
"67.6000","56.3133","0.8612"
"68.0000","56.6448","0.8647"
"68.4000","56.9789","0.8690"
"68.8000","57.3134","0.8721"
"69.2000","57.6456","0.8761"
"69.6000","57.9795","0.8801"
"70.0000","58.3123","0.8835"
"70.4000","58.6461","0.8875"
"70.8000","58.9786","0.8910"
"71.2000","59.3130","0.8950"
"71.6000","59.6470","0.8985"
"72.0000","59.9783","0.9023"
"72.4000","60.3140","0.9064"
"72.8000","60.6465","0.9096"
"73.2000","60.9785","0.9136"
"73.6000","61.3133","0.9173"
"74.0000","61.6447","0.9208"
"74.4000","61.9792","0.9250"
"74.8000","62.3132","0.9281"
"75.2000","62.6455","0.9319"
"75.6000","62.9797","0.9358"
"76.0000","63.3122","0.9392"
"76.4000","63.6459","0.9433"
"76.8000","63.9781","0.9467"
"77.2000","64.3130","0.9505"
"77.6000","64.6470","0.9541"
"78.0000","64.9783","0.9577"
"78.4000","65.3140","0.9619"
"78.8000","65.6464","0.9650"
"79.2000","65.9788","0.9689"
"79.6000","66.3132","0.9726"
"80.0000","66.6446","0.9761"
"80.4000","66.9792","0.9802"
"80.8000","67.3131","0.9832"
"81.2000","67.6459","0.9871"
"81.6000","67.9796","0.9910"
"82.0000","68.3122","0.9943"
"82.4000","68.6459","0.9983"
"82.8000","68.9786","1.0017"
"83.2000","69.3131","1.0056"
"83.6000","69.6471","1.0090"
"84.0000","69.9781","1.0126"
"84.4000","70.3139","1.0167"
"84.8000","70.6464","1.0199"
"85.2000","70.9785","1.0237"
"85.6000","71.3134","1.0274"
"86.0000","71.6445","1.0308"
"86.4000","71.9792","1.0348"
"86.8000","72.3132","1.0379"
"87.2000","72.6455","1.0416"
"87.6000","72.9795","1.0453"
"88.0000","73.3122","1.0487"
"88.4000","73.6459","1.0527"
"88.8000","73.9783","1.0560"
"89.2000","74.3130","1.0598"
"89.6000","74.6468","1.0634"
"90.0000","74.9781","1.0668"
"90.4000","75.3139","1.0708"
"90.8000","75.6463","1.0739"
"91.2000","75.9783","1.0777"
"91.6000","76.3133","1.0814"
"92.0000","76.6446","1.0848"
"92.4000","76.9791","1.0889"
"92.8000","77.3133","1.0920"
"93.2000","77.6454","1.0957"
"93.6000","77.9795","1.0995"
"94.0000","78.3121","1.1027"
"94.4000","78.6460","1.1067"
"94.8000","78.9787","1.1101"
"95.2000","79.3129","1.1139"
"95.6000","79.6470","1.1173"
"96.0000","79.9784","1.1208"
"96.4000","80.3140","1.1249"
"96.8000","80.6466","1.1280"
"97.2000","80.9786","1.1317"
"97.6000","81.3133","1.1353"
"98.0000","81.6448","1.1387"
"98.4000","81.9793","1.1428"
"98.8000","82.3132","1.1459"
"99.2000","82.6454","1.1495"
"99.6000","82.9797","1.1533"
"100.0000","83.3120","1.1566"
"100.4000","83.6459","1.1605"
"100.8000","83.9786","1.1638"
"101.2000","84.3130","1.1676"
"101.6000","84.6469","1.1711"
"102.0000","84.9783","1.1746"
"102.4000","85.3141","1.1786"
"102.8000","85.6467","1.1817"
"103.2000","85.9784","1.1855"
"103.6000","86.3131","1.1891"
"104.0000","86.6446","1.1924"
"104.4000","86.9790","1.1964"
"104.8000","87.3134","1.1995"
"105.2000","87.6460","1.2031"
"105.6000","87.9795","1.2068"
"106.0000","88.3123","1.2102"
"106.4000","88.6461","1.2141"
"106.8000","88.9787","1.2173"
"107.2000","89.3125","1.2207"
"107.2950","89.3925","0.7090"