File: tensile/test_1.is_qtest_Exports/test_1_2.csv
Time,Displacement,Force
(s),(mm),(kgf)
"0.0000","0.0000","0.0009"
"0.4000","0.3145","0.0076"
"0.8000","0.6470","0.0144"
"1.2000","0.9790","0.0215"
"1.6000","1.3135","0.0281"
"2.0000","1.6449","0.0342"
"2.4000","1.9795","0.0410"
"2.8000","2.3138","0.0469"
"3.2000","2.6460","0.0532"
"3.6000","2.9799","0.0598"
"4.0000","3.3127","0.0658"
"4.4000","3.6462","0.0726"
"4.8000","3.9789","0.0788"
"5.2000","4.3133","0.0856"
"5.6000","4.6473","0.0920"
"6.0000","4.9787","0.0985"
"6.4000","5.3142","0.1056"
"6.8000","5.6467","0.1117"
"7.2000","5.9788","0.1187"
"7.6000","6.3138","0.1256"
"8.0000","6.6454","0.1321"
"8.4000","6.9795","0.1394"
"8.8000","7.3138","0.1456"
"9.2000","7.6461","0.1523"
"9.6000","7.9798","0.1591"
"10.0000","8.3127","0.1655"
"10.4000","8.6463","0.1725"
"10.8000","8.9789","0.1790"
"11.2000","9.3132","0.1859"
"11.6000","9.6473","0.1926"
"12.0000","9.9784","0.1995"
"12.4000","10.3142","0.2068"
"12.8000","10.6467","0.2132"
"13.2000","10.9788","0.2205"
"13.6000","11.3136","0.2278"
"14.0000","11.6452","0.2347"
"14.4000","11.9795","0.2423"
"14.8000","12.3136","0.2488"
"15.2000","12.6459","0.2563"
"15.6000","12.9800","0.2637"
"16.0000","13.3126","0.2705"
"16.4000","13.6462","0.2781"
"16.8000","13.9788","0.2851"
"17.2000","14.3133","0.2926"
"17.6000","14.6472","0.2998"
"18.0000","14.9785","0.3071"
"18.4000","15.3144","0.3151"
"18.8000","15.6467","0.3219"
"19.2000","15.9787","0.3297"
"19.6000","16.3134","0.3373"
"20.0000","16.6449","0.3446"
"20.4000","16.9796","0.3527"
"20.8000","17.3136","0.3600"
"21.2000","17.6459","0.3678"
"21.6000","17.9799","0.3758"
"22.0000","18.3126","0.3834"
"22.4000","18.6463","0.3917"
"22.8000","18.9788","0.3995"
"23.2000","19.3133","0.4079"
"23.6000","19.6471","0.4159"
"24.0000","19.9783","0.4242"
"24.4000","20.3142","0.4331"
"24.8000","20.6467","0.4409"
"25.2000","20.9788","0.4496"
"25.6000","21.3135","0.4580"
"26.0000","21.6445","0.4662"
"26.4000","21.9796","0.4752"
"26.8000","22.3136","0.4830"
"27.2000","22.6460","0.4912"
"27.6000","22.9796","0.4994"
"28.0000","23.3127","0.5070"
"28.4000","23.6463","0.5149"
"28.8000","23.9791","0.5221"
"29.2000","24.3132","0.5295"
"29.6000","24.6471","0.5366"
"30.0000","24.9785","0.5436"
"30.4000","25.3143","0.5509"
"30.8000","25.6467","0.5572"
"31.2000","25.9787","0.5641"
"31.6000","26.3135","0.5708"
"32.0000","26.6449","0.5771"
"32.4000","26.9796","0.5841"
"32.8000","27.3137","0.5900"
"33.2000","27.6459","0.5964"
"33.6000","27.9798","0.6029"
"34.0000","28.3126","0.6088"
"34.4000","28.6465","0.6153"
"34.8000","28.9790","0.6211"
"35.2000","29.3133","0.6272"
"35.6000","29.6471","0.6329"
"36.0000","29.9788","0.6384"
"36.4000","30.3141","0.6435"
"36.8000","30.6467","0.6468"
"37.2000","30.9787","0.6520"
"37.6000","31.3135","0.6572"
"38.0000","31.6450","0.6618"
"38.4000","31.9797","0.6667"
"38.8000","32.3135","0.6695"
"39.2000","32.6460","0.6699"
"39.6000","32.9799","0.6707"
"40.0000","33.3124","0.6768"
"40.4000","33.6465","0.6829"
"40.8000","33.9789","0.6878"
"41.2000","34.3133","0.6939"
"41.6000","34.6473","0.6993"
"42.0000","34.9785","0.7048"
"42.4000","35.3143","0.7108"
"42.8000","35.6466","0.7158"
"43.2000","35.9787","0.7215"
"43.6000","36.3135","0.7269"
"44.0000","36.6451","0.7320"
"44.4000","36.9797","0.7378"
"44.8000","37.3137","0.7426"
"45.2000","37.6459","0.7479"
"45.6000","37.9800","0.7534"
"46.0000","38.3126","0.7584"
"46.4000","38.6463","0.7639"
"46.8000","38.9790","0.7689"
"47.2000","39.3131","0.7742"
"47.6000","39.6473","0.7793"
"48.0000","39.9785","0.7843"
"48.4000","40.3145","0.7899"
"48.8000","40.6466","0.7945"
"49.2000","40.9790","0.7998"
"49.6000","41.3137","0.8049"
"50.0000","41.6449","0.8099"
"50.4000","41.9797","0.8153"
"50.8000","42.3136","0.8198"
"51.2000","42.6463","0.8249"
"51.6000","42.9798","0.8299"
"52.0000","43.3128","0.8347"
"52.4000","43.6463","0.8400"
"52.8000","43.9788","0.8447"
"53.2000","44.3135","0.8499"
"53.6000","44.6473","0.8547"
"54.0000","44.9785","0.8595"
"54.4000","45.3143","0.8649"
"54.8000","45.6467","0.8692"
"55.2000","45.9787","0.8744"
"55.6000","46.3135","0.8793"
"56.0000","46.6450","0.8840"
"56.4000","46.9797","0.8892"
"56.8000","47.3135","0.8935"
"57.2000","47.6459","0.8984"
"57.6000","47.9800","0.9034"
"58.0000","48.3124","0.9078"
"58.4000","48.6463","0.9129"
"58.8000","48.9789","0.9174"
"59.2000","49.3134","0.9224"
"59.6000","49.6470","0.9271"
"60.0000","49.9785","0.9317"
"60.4000","50.3142","0.9369"
"60.8000","50.6467","0.9410"
"61.2000","50.9787","0.9459"
"61.6000","51.3136","0.9506"
"62.0000","51.6449","0.9551"
"62.4000","51.9798","0.9602"
"62.8000","52.3136","0.9643"
"63.2000","52.6459","0.9691"
"63.6000","52.9801","0.9739"
"64.0000","53.3128","0.9783"
"64.4000","53.6465","0.9832"
"64.8000","53.9787","0.9876"
"65.2000","54.3132","0.9924"
"65.6000","54.6472","0.9969"
"66.0000","54.9786","1.0014"
"66.4000","55.3144","1.0064"
"66.8000","55.6468","1.0105"
"67.2000","55.9790","1.0153"
"67.6000","56.3136","1.0198"
"68.0000","56.6451","1.0242"
"68.4000","56.9795","1.0292"
"68.8000","57.3138","1.0332"
"69.2000","57.6458","1.0378"
"69.6000","57.9801","1.0425"
"70.0000","58.3124","1.0468"
"70.4000","58.6465","1.0515"
"70.8000","58.9790","1.0558"
"71.2000","59.3134","1.0605"
"71.6000","59.6471","1.0648"
"72.0000","59.9787","1.0692"
"72.4000","60.3145","1.0742"
"72.8000","60.6468","1.0781"
"73.2000","60.9788","1.0827"
"73.6000","61.3134","1.0872"
"74.0000","61.6450","1.0914"
"74.4000","61.9796","1.0962"
"74.8000","62.3136","1.1001"
"75.2000","62.6459","1.1047"
"75.6000","62.9797","1.1092"
"76.0000","63.3127","1.1134"
"76.4000","63.6465","1.1181"
"76.8000","63.9790","1.1222"
"77.2000","64.3130","1.1268"
"77.6000","64.6471","1.1310"
"78.0000","64.9781","1.1354"
"78.4000","65.3145","1.1401"
"78.8000","65.6469","1.1440"
"79.2000","65.9790","1.1487"
"79.6000","66.3135","1.1529"
"80.0000","66.6450","1.1571"
"80.4000","66.9797","1.1619"
"80.8000","67.3137","1.1657"
"81.2000","67.6460","1.1702"
"81.6000","67.9798","1.1747"
"82.0000","68.3126","1.1787"
"82.4000","68.6465","1.1834"
"82.8000","68.9789","1.1875"
"83.2000","69.3131","1.1920"
"83.6000","69.6472","1.1962"
"84.0000","69.9787","1.2004"
"84.4000","70.3143","1.2053"
"84.8000","70.6469","1.2090"
"85.2000","70.9788","1.2135"
"85.6000","71.3137","1.2178"
"86.0000","71.6450","1.2219"
"86.4000","71.9797","1.2266"
"86.8000","72.3137","1.2303"
"87.2000","72.6460","1.2348"
"87.6000","72.9799","1.2393"
"88.0000","73.3125","1.2433"
"88.4000","73.6465","1.2478"
"88.8000","73.9788","1.2517"
"89.2000","74.3133","1.2563"
"89.6000","74.6471","1.2604"
"90.0000","74.9784","1.2645"
"90.4000","75.3143","1.2691"
"90.8000","75.6468","1.2729"
"91.2000","75.9787","1.2773"
"91.6000","76.3132","1.2814"
"92.0000","76.6450","1.2855"
"92.4000","76.9796","1.2902"
"92.8000","77.3137","1.2938"
"93.2000","77.6458","1.2981"
"93.6000","77.9798","1.3024"
"94.0000","78.3123","1.3063"
"94.4000","78.6462","1.3107"
"94.8000","78.9789","1.3147"
"95.2000","79.3132","1.3190"
"95.6000","79.6472","1.3231"
"96.0000","79.9783","1.3270"
"96.4000","80.3141","1.3317"
"96.8000","80.6467","1.3352"
"97.2000","80.9790","1.3395"
"97.6000","81.3133","1.3436"
"98.0000","81.6451","1.3475"
"98.4000","81.9798","1.3520"
"98.8000","82.3136","1.3555"
"99.2000","82.6460","1.3597"
"99.6000","82.9795","1.3639"
"100.0000","83.3128","1.3677"
"100.4000","83.6463","1.3720"
"100.8000","83.9789","1.3758"
"101.2000","84.3134","1.3801"
"101.6000","84.6471","1.3839"
"102.0000","84.9784","1.3877"
"102.4000","85.3142","1.3921"
"102.8000","85.6468","1.3955"
"103.2000","85.9790","1.3994"
"103.6000","86.3137","1.4031"
"104.0000","86.6453","1.4063"
"104.4000","86.9797","1.4099"
"104.8000","87.3130","1.4100"
"105.0350","87.5105","0.8214"